Data from p_38_grat_Al_Subt2__0__15-18-40-778.txt Node

Date: Thu Jan 18 15:18:40 CET 2024
User: vdhooven
Spectrometer: QEP05097
Trigger mode: 4
Integration Time (sec): 5.000000E-2
Scans to average: 2
Electric dark correction enabled: true
Nonlinearity correction enabled: false
Boxcar width: 0
XAxis mode: Wavelengths
Number of Pixels in Spectrum: 1044
>>>>>Begin Spectral Data<<<<<
197.106	-1.69
197.905	0.31
198.704	-2.69
199.503	0.31
200.302	228.31
201.101	222.31
201.9	238.31
202.699	220.31
203.498	234.81
204.296	227.81
205.095	226.81
205.894	238.31
206.692	234.81
207.491	199.31
208.289	149.81
209.088	125.31
209.886	110.81
210.684	87.81
211.483	90.31
212.281	88.81
213.079	93.31
213.877	81.81
214.675	87.81
215.473	87.31
216.271	79.31
217.069	81.31
217.866	76.81
218.664	72.81
219.462	74.81
220.259	74.81
221.057	73.31
221.855	73.31
222.652	69.31
223.449	72.81
224.247	73.31
225.044	79.31
225.841	94.81
226.638	113.31
227.436	146.31
228.233	169.31
229.03	158.81
229.827	149.81
230.624	140.81
231.42	141.81
232.217	144.81
233.014	145.81
233.811	146.31
234.607	133.81
235.404	132.31
236.2	136.81
236.997	135.31
237.793	133.31
238.589	129.31
239.386	134.81
240.182	125.81
240.978	134.31
241.774	129.31
242.57	130.81
243.366	121.81
244.162	127.31
244.958	126.81
245.754	127.31
246.55	119.81
247.345	116.31
248.141	117.31
248.937	123.31
249.732	117.31
250.528	118.31
251.323	112.81
252.118	113.81
252.914	115.31
253.709	118.31
254.504	115.81
255.299	113.81
256.094	111.81
256.889	110.81
257.684	111.81
258.479	108.31
259.274	112.31
260.069	109.81
260.864	106.31
261.658	105.81
262.453	107.81
263.247	103.81
264.042	106.31
264.836	105.31
265.631	106.81
266.425	99.31
267.219	112.31
268.013	104.31
268.808	101.81
269.602	101.81
270.396	100.31
271.19	95.81
271.984	94.31
272.777	90.31
273.571	96.81
274.365	88.81
275.159	95.31
275.952	94.81
276.746	98.81
277.539	102.81
278.333	94.81
279.126	94.81
279.919	90.81
280.713	89.31
281.506	86.31
282.299	90.81
283.092	94.31
283.885	92.81
284.678	90.81
285.471	93.81
286.264	89.31
287.057	91.31
287.849	89.31
288.642	95.81
289.434	85.31
290.227	83.31
291.02	88.31
291.812	87.81
292.604	89.81
293.397	82.81
294.189	85.81
294.981	80.31
295.773	87.81
296.565	84.81
297.357	82.31
298.149	87.31
298.941	83.31
299.733	85.31
300.525	83.31
301.316	80.81
302.108	74.81
302.899	72.81
303.691	80.81
304.482	77.81
305.274	75.81
306.065	75.81
306.856	76.31
307.648	73.81
308.439	70.81
309.23	70.31
310.021	74.81
310.812	74.31
311.603	80.31
312.394	72.81
313.184	77.31
313.975	73.31
314.766	73.31
315.556	64.31
316.347	68.81
317.137	71.31
317.928	64.31
318.718	65.31
319.508	65.81
320.299	75.81
321.089	67.81
321.879	60.31
322.669	65.81
323.459	64.81
324.249	61.31
325.039	61.81
325.828	69.31
326.618	67.81
327.408	64.31
328.197	70.31
328.987	65.31
329.776	66.31
330.566	70.31
331.355	68.81
332.145	60.81
332.934	67.81
333.723	69.31
334.512	61.31
335.301	64.81
336.09	57.31
336.879	57.81
337.668	63.81
338.457	61.81
339.245	63.81
340.034	61.31
340.823	61.81
341.611	59.81
342.4	58.31
343.188	62.81
343.976	61.81
344.765	53.31
345.553	55.31
346.341	58.81
347.129	61.31
347.917	58.31
348.705	62.31
349.493	56.81
350.281	56.81
351.069	57.31
351.856	55.31
352.644	54.31
353.432	60.81
354.219	59.81
355.007	48.81
355.794	61.31
356.581	54.31
357.369	58.81
358.156	58.31
358.943	54.81
359.73	61.81
360.517	56.31
361.304	58.31
362.091	54.31
362.878	67.31
363.664	51.31
364.451	57.81
365.238	59.81
366.024	62.81
366.811	63.81
367.597	60.31
368.384	62.81
369.17	61.31
369.956	70.31
370.742	72.31
371.528	65.31
372.314	72.81
373.1	65.81
373.886	76.81
374.672	71.81
375.458	76.81
376.244	83.81
377.029	86.31
377.815	84.81
378.6	90.31
379.386	99.31
380.171	101.81
380.956	108.81
381.742	116.31
382.527	118.81
383.312	127.81
384.097	126.81
384.882	135.81
385.667	132.31
386.452	144.31
387.237	157.31
388.021	154.31
388.806	164.31
389.591	173.31
390.375	171.31
391.16	177.31
391.944	191.31
392.728	194.31
393.513	201.31
394.297	211.81
395.081	209.81
395.865	233.31
396.649	237.81
397.433	238.31
398.217	254.31
399.001	250.81
399.784	275.31
400.568	266.81
401.352	290.31
402.135	306.31
402.919	291.31
403.702	322.81
404.485	320.81
405.269	340.81
406.052	345.81
406.835	354.31
407.618	365.31
408.401	385.81
409.184	396.81
409.967	396.81
410.749	419.81
411.532	432.81
412.315	450.81
413.097	452.81
413.88	459.81
414.662	495.31
415.445	507.81
416.227	518.81
417.009	528.81
417.792	559.81
418.574	576.31
419.356	597.31
420.138	626.81
420.92	624.31
421.701	641.31
422.483	675.31
423.265	690.81
424.047	717.81
424.828	736.81
425.61	774.31
426.391	799.81
427.172	814.31
427.954	847.81
428.735	857.81
429.516	900.81
430.297	930.31
431.078	979.31
431.859	1002.81
432.64	1052.81
433.421	1096.81
434.202	1125.81
434.982	1169.31
435.763	1219.81
436.543	1248.31
437.324	1275.31
438.104	1328.81
438.885	1395.31
439.665	1450.31
440.445	1484.81
441.225	1529.81
442.005	1569.31
442.785	1590.31
443.565	1665.81
444.345	1700.81
445.125	1737.81
445.904	1789.81
446.684	1823.81
447.464	1882.81
448.243	1920.81
449.022	1936.81
449.802	2001.31
450.581	2009.31
451.36	2056.31
452.139	2102.81
452.919	2159.31
453.698	2176.31
454.477	2240.31
455.255	2272.31
456.034	2312.81
456.813	2342.31
457.592	2380.81
458.37	2437.31
459.149	2487.81
459.927	2537.31
460.705	2589.31
461.484	2616.81
462.262	2667.31
463.04	2742.81
463.818	2770.31
464.596	2803.81
465.374	2886.81
466.152	2908.81
466.93	2971.31
467.708	3063.31
468.485	3083.81
469.263	3180.31
470.04	3225.81
470.818	3287.81
471.595	3337.31
472.372	3372.81
473.15	3449.31
473.927	3514.81
474.704	3592.31
475.481	3626.81
476.258	3709.31
477.035	3755.81
477.812	3830.81
478.588	3938.31
479.365	4033.81
480.142	4064.31
480.918	4176.31
481.695	4261.31
482.471	4368.81
483.247	4451.81
484.023	4524.81
484.8	4617.81
485.576	4673.81
486.352	4757.81
487.128	4880.81
487.904	4995.31
488.679	5056.31
489.455	5132.81
490.231	5264.31
491.006	5346.31
491.782	5427.31
492.557	5528.31
493.333	5649.81
494.108	5733.31
494.883	5816.81
495.658	5901.31
496.433	6049.81
497.208	6178.31
497.983	6250.31
498.758	6346.81
499.533	6474.31
500.308	6613.31
501.082	6766.31
501.857	6882.31
502.631	7039.31
503.406	7146.81
504.18	7292.31
504.954	7425.31
505.728	7549.31
506.503	7709.31
507.277	7786.31
508.051	7959.81
508.824	8101.31
509.598	8246.31
510.372	8397.31
511.146	8532.31
511.919	8677.81
512.693	8815.81
513.466	8977.31
514.24	9288.31
515.013	9407.31
515.786	9565.31
516.559	9764.81
517.332	9941.81
518.105	10121.81
518.878	10246.31
519.651	10364.81
520.424	10497.81
521.197	10700.81
521.969	10830.81
522.742	10979.81
523.514	11120.81
524.287	11264.81
525.059	11342.81
525.831	11428.31
526.604	11514.31
527.376	11681.81
528.148	11883.81
528.92	11961.81
529.692	12102.81
530.464	12201.31
531.235	12291.81
532.007	12449.31
532.779	12627.81
533.55	12761.81
534.321	12895.81
535.093	12953.31
535.864	13186.31
536.635	13275.81
537.406	13415.31
538.178	13526.81
538.949	13600.31
539.719	13770.81
540.49	13950.31
541.261	14121.81
542.032	14318.31
542.802	14525.81
543.573	14681.31
544.343	14815.81
545.114	14960.81
545.884	15168.31
546.654	15312.31
547.424	15520.31
548.194	15644.81
548.964	15894.81
549.734	16054.81
550.504	16341.31
551.274	16655.31
552.044	16924.81
552.813	17220.81
553.583	17435.31
554.352	17670.81
555.122	17936.31
555.891	18104.81
556.66	18286.81
557.429	18572.81
558.198	18801.81
558.967	18972.31
559.736	19209.31
560.505	19323.31
561.274	19520.81
562.043	19771.81
562.811	19952.81
563.58	20170.81
564.348	20290.81
565.117	20541.81
565.885	20813.81
566.653	21064.31
567.421	21391.31
568.19	21584.81
568.958	21795.31
569.725	22160.31
570.493	22474.81
571.261	22792.81
572.029	23049.81
572.796	23262.81
573.564	23468.31
574.331	23505.81
575.099	23933.81
575.866	24280.31
576.633	24595.81
577.4	24762.81
578.168	24909.81
578.935	25182.81
579.701	25138.81
580.468	25447.81
581.235	25612.81
582.002	25947.31
582.768	26326.81
583.535	26568.31
584.301	26940.31
585.068	27112.31
585.834	27348.81
586.6	27484.81
587.366	27721.31
588.132	28013.81
588.898	28133.31
589.664	28410.81
590.43	28625.31
591.196	28784.81
591.961	29103.81
592.727	29356.81
593.492	29805.31
594.258	30049.81
595.023	30210.31
595.788	30400.31
596.554	30600.81
597.319	30756.31
598.084	31088.31
598.849	31447.81
599.614	31846.81
600.378	32183.81
601.143	32708.81
601.908	32967.31
602.672	33260.81
603.437	33570.81
604.201	34117.31
604.965	34375.81
605.73	34583.31
606.494	34851.31
607.258	34968.31
608.022	35281.81
608.786	35519.81
609.55	35814.31
610.313	36200.81
611.077	36675.31
611.841	36938.31
612.604	37305.81
613.367	37398.31
614.131	37754.81
614.894	37838.81
615.657	38134.81
616.42	38394.81
617.183	38998.81
617.946	39631.81
618.709	40189.31
619.472	40415.31
620.235	40736.81
620.997	40920.81
621.76	41187.81
622.522	41479.81
623.285	41986.81
624.047	42245.81
624.809	42592.31
625.571	42939.31
626.333	43335.81
627.095	43526.81
627.857	44203.31
628.619	44593.31
629.381	45192.31
630.142	45478.81
630.904	45823.31
631.665	46316.31
632.427	47166.81
633.188	47420.31
633.949	48222.31
634.711	48699.81
635.472	49424.81
636.233	50214.31
636.994	51184.31
637.754	51804.31
638.515	52405.81
639.276	52818.31
640.036	53658.31
640.797	54392.31
641.557	55136.81
642.318	56249.31
643.078	57175.31
643.838	58600.31
644.598	59629.31
645.358	61336.81
646.118	62611.81
646.878	64186.81
647.638	65105.31
648.397	66143.81
649.157	67219.81
649.916	68098.81
650.676	68788.31
651.435	68932.31
652.194	69314.31
652.954	68718.81
653.713	68993.31
654.472	68558.81
655.231	68090.81
655.99	67337.31
656.748	67247.81
657.507	66679.31
658.266	65531.81
659.024	64600.31
659.783	62982.81
660.541	62225.31
661.299	60496.81
662.057	59184.81
662.815	57677.31
663.573	56445.31
664.331	55478.31
665.089	53816.81
665.847	52755.31
666.605	51340.31
667.362	50835.31
668.12	49769.81
668.877	48418.31
669.635	47345.81
670.392	46271.81
671.149	45978.81
671.906	45111.81
672.663	44924.81
673.42	44411.31
674.177	44376.81
674.934	44089.31
675.69	43203.81
676.447	42844.31
677.203	42044.31
677.96	41814.31
678.716	41449.81
679.472	40793.81
680.229	40480.31
680.985	39876.81
681.741	39909.31
682.497	39651.31
683.252	39531.31
684.008	39670.31
684.764	38816.31
685.519	38495.31
686.275	37736.81
687.03	37377.31
687.786	36990.31
688.541	36595.81
689.296	36489.81
690.051	35751.31
690.806	35396.31
691.561	35078.81
692.316	34068.31
693.07	33938.81
693.825	33286.31
694.58	33096.81
695.334	32812.81
696.088	31926.31
696.843	31802.31
697.597	31287.81
698.351	30985.81
699.105	30828.81
699.859	30011.81
700.613	29820.81
701.367	29354.31
702.12	29011.31
702.874	28957.81
703.627	28328.31
704.381	28164.31
705.134	27774.31
705.887	27298.81
706.641	27118.81
707.394	26669.31
708.147	26488.31
708.9	26279.31
709.652	25698.81
710.405	25543.31
711.158	25158.81
711.91	24839.81
712.663	24807.31
713.415	24454.31
714.168	24244.31
714.92	24046.81
715.672	23467.31
716.424	23391.31
717.176	23057.81
717.928	22898.31
718.68	23235.81
719.431	23033.81
720.183	22891.31
720.934	22796.81
721.686	22413.31
722.437	22546.81
723.188	22406.31
723.94	22083.31
724.691	22315.31
725.442	22264.31
726.193	22276.81
726.943	22641.31
727.694	22611.81
728.445	22657.31
729.195	22904.81
729.946	22556.31
730.696	22821.31
731.446	23002.81
732.197	23007.31
732.947	23232.81
733.697	23210.81
734.447	23068.81
735.197	23424.31
735.946	23436.81
736.696	23548.81
737.446	24079.81
738.195	24168.31
738.945	24256.81
739.694	24705.81
740.443	24580.31
741.192	24828.81
741.941	25234.81
742.69	25063.81
743.439	25443.81
744.188	25818.81
744.937	25904.81
745.685	26542.81
746.434	26959.81
747.182	26761.31
747.931	27237.31
748.679	27645.31
749.427	27542.81
750.175	27892.81
750.923	28118.31
751.671	27976.31
752.419	28548.31
753.167	28895.31
753.914	28922.81
754.662	29404.31
755.409	29927.31
756.157	29723.31
756.904	30253.81
757.651	30808.31
758.398	30317.81
759.145	30736.81
759.892	31319.81
760.639	31454.31
761.386	32089.31
762.132	32522.81
762.879	31897.31
763.625	32033.31
764.372	32597.31
765.118	32530.31
765.864	32992.31
766.61	33630.81
767.356	33748.81
768.102	33844.31
768.848	34615.81
769.594	34657.81
770.339	34738.81
771.085	35222.81
771.83	35139.31
772.576	34901.81
773.321	35864.81
774.066	35647.81
774.811	35099.31
775.556	35848.81
776.301	36154.81
777.046	36130.81
777.791	36590.81
778.535	37233.81
779.28	36723.81
780.025	37024.31
780.769	37587.31
781.513	37154.81
782.257	36959.81
783.001	37529.81
783.746	37162.31
784.489	36816.31
785.233	37467.31
785.977	37562.31
786.721	37128.31
787.464	37465.81
788.208	37942.31
788.951	37468.31
789.694	37414.31
790.438	37746.31
791.181	37422.81
791.924	37520.31
792.667	38187.31
793.409	37946.81
794.152	37127.81
794.895	37502.81
795.637	37908.81
796.38	37748.81
797.122	38070.81
797.864	38809.81
798.607	38372.31
799.349	37982.81
800.091	38660.81
800.832	38501.81
801.574	38035.31
802.316	38502.81
803.058	38810.31
803.799	38267.31
804.541	38099.31
805.282	38470.31
806.023	38164.81
806.764	37620.81
807.505	38144.31
808.246	38984.81
808.987	38580.81
809.728	38583.31
810.469	39299.81
811.209	39164.81
811.95	38598.81
812.69	39184.81
813.431	39274.81
814.171	38649.31
814.911	38561.31
815.651	39245.31
816.391	39072.31
817.131	38707.81
817.87	39321.31
818.61	40355.31
819.35	40306.31
820.089	39908.31
820.829	40056.81
821.568	39819.81
822.307	39086.31
823.046	39510.31
823.785	39936.81
824.524	39175.31
825.263	38638.81
826.002	39181.81
826.74	39717.31
827.479	39482.81
828.217	39460.81
828.956	40051.81
829.694	39879.31
830.432	38765.81
831.17	38836.31
831.908	39700.81
832.646	39350.31
833.384	38840.81
834.121	39316.31
834.859	39514.81
835.596	38941.31
836.334	38952.81
837.071	39898.31
837.808	40235.81
838.545	39176.31
839.282	39006.31
840.019	39344.81
840.756	38912.31
841.493	38565.81
842.23	39518.81
842.966	40252.31
843.703	39934.31
844.439	39376.31
845.175	39662.81
845.911	40115.31
846.647	39647.81
847.383	39414.31
848.119	39828.81
848.855	39726.31
849.591	39055.31
850.326	39273.81
851.062	40484.31
851.797	41039.81
852.532	40382.81
853.268	40158.31
854.003	40378.31
854.738	40386.31
855.473	39983.31
856.207	40629.81
856.942	42193.31
857.677	42546.31
858.411	41712.31
859.146	41365.81
859.88	42433.81
860.614	42796.31
861.348	42459.81
862.083	42933.31
862.816	43477.31
863.55	42146.81
864.284	40698.31
865.018	40360.81
865.751	40507.31
866.485	40177.31
867.218	39256.81
867.951	38442.31
868.685	37651.31
869.418	36233.81
870.151	34225.81
870.884	33183.81
871.616	33061.31
872.349	32140.31
873.082	30604.31
873.814	29277.81
874.546	28498.31
875.279	27145.81
876.011	25407.81
876.743	24288.31
877.475	24021.31
878.207	23486.31
878.939	22334.31
879.671	21346.31
880.402	20823.31
881.134	20445.81
881.865	19757.31
882.596	19117.81
883.328	18973.31
884.059	18856.31
884.79	18335.31
885.521	17544.81
886.252	17350.31
886.982	17612.81
887.713	17592.31
888.443	17245.81
889.174	17316.31
889.904	17584.31
890.634	17643.81
891.365	17450.31
892.095	17603.31
892.825	18123.31
893.554	18760.81
894.284	18827.81
895.014	18948.81
895.743	19171.81
896.473	19525.81
897.202	19600.31
897.931	19605.31
898.661	19947.31
899.39	20502.31
900.119	20843.81
900.847	20636.81
901.576	20662.81
902.305	21067.31
903.033	21615.31
903.762	21759.81
904.49	21774.81
905.218	22439.81
905.947	23390.81
906.675	23531.81
907.403	23339.31
908.13	23446.31
908.858	23991.81
909.586	24510.81
910.313	24444.81
911.041	24135.31
911.768	24333.31
912.496	24708.31
913.223	24662.81
913.95	24198.81
914.677	24120.81
915.404	24623.81
916.13	25049.81
916.857	25021.81
917.584	24840.31
918.31	24874.31
919.036	25138.31
919.763	25331.81
920.489	25179.81
921.215	25304.31
921.941	25954.31
922.667	26109.81
923.392	25703.81
924.118	25186.31
924.844	25329.81
925.569	25730.31
926.294	25948.31
927.02	25696.81
927.745	25464.31
928.47	25769.31
929.195	25894.81
929.92	25509.81
930.644	24866.31
931.369	24586.31
932.094	24942.81
932.818	25154.81
933.542	24815.81
934.267	24493.31
934.991	24520.81
935.715	24828.81
936.439	24877.81
937.163	24591.81
937.886	24287.31
938.61	24539.31
939.333	24802.81
940.057	24751.81
940.78	24192.31
941.503	23865.81
942.227	24074.31
942.95	24652.81
943.672	24834.31
944.395	24369.81
945.118	24394.31
945.841	24505.81
946.563	24688.81
947.285	24386.31
948.008	23945.81
948.73	23781.31
949.452	23949.31
950.174	24098.81
950.896	23490.81
951.618	22853.31
952.339	22654.81
953.061	23094.81
953.782	23459.31
954.504	23118.81
955.225	22367.81
955.946	22125.81
956.667	22114.31
957.388	22206.31
958.109	21870.81
958.83	21451.81
959.551	21255.81
960.271	21500.31
960.992	21758.31
961.712	21487.81
962.432	20920.81
963.152	20713.81
963.872	20831.81
964.592	20924.81
965.312	20541.81
966.032	20169.31
966.751	19953.31
967.471	20029.31
968.19	20268.31
968.91	20057.81
969.629	19585.31
970.348	19370.31
971.067	19310.31
971.786	19286.81
972.505	19070.31
973.223	18496.31
973.942	17964.81
974.66	17813.81
975.379	17703.81
976.097	17531.81
976.815	17191.31
977.533	16676.31
978.251	16535.81
978.969	16486.31
979.687	16417.81
980.404	15996.31
981.122	15599.81
981.839	15447.81
982.557	15600.31
983.274	15422.31
983.991	15056.81
984.708	14548.81
985.425	14394.31
986.142	14467.31
986.859	14413.81
987.575	14021.31
988.292	13549.31
989.008	13151.81
989.724	4.81
990.44	-0.19
991.157	-5.19
991.872	4.31
